BAND       Spin up Energy(ev)               Occupation     Spin down Energy(ev)               Occupation                Kpoint = 1                        (0 0 0)
     1                  -101.99                     0.25                  -101.99                     0.25
     2                 -56.3134                     0.25                 -56.3134                     0.25
     3                 -56.0154                     0.25                 -56.0154                     0.25
     4                  -55.991                     0.25                  -55.991                     0.25
     5                 -21.2197                     0.25                 -21.2197                     0.25
     6                 -20.3908                     0.25                 -20.3908                     0.25
     7                 -20.3787                     0.25                 -20.3787                     0.25
     8                 -20.3708                     0.25                 -20.3708                     0.25
     9                  -20.348                     0.25                  -20.348                     0.25
    10                 -20.1574                     0.25                 -20.1574                     0.25
    11                 -19.6587                     0.25                 -19.6587                     0.25
    12                 -18.9431                     0.25                 -18.9431                     0.25
    13                 -18.5707                     0.25                 -18.5707                     0.25
    14                 -18.5083                     0.25                 -18.5083                     0.25
    15                 -18.4691                     0.25                 -18.4691                     0.25
    16                 -18.4211                     0.25                 -18.4211                     0.25
    17                 -18.2979                     0.25                 -18.2979                     0.25
    18                 -18.0745                     0.25                 -18.0745                     0.25
    19                 -17.6506                     0.25                 -17.6506                     0.25
    20                 -17.5931                     0.25                 -17.5931                     0.25
    21                 -17.5766                     0.25                 -17.5766                     0.25
    22                 -17.4922                     0.25                 -17.4922                     0.25
    23                  -17.098                     0.25                  -17.098                     0.25
    24                 -16.5628                     0.25                 -16.5628                     0.25
    25                 -16.5284                     0.25                 -16.5284                     0.25
    26                 -16.3652                     0.25                 -16.3652                     0.25
    27                 -15.5143                     0.25                 -15.5143                     0.25
    28                 -15.4769                     0.25                 -15.4769                     0.25
    29                  -15.386                     0.25                  -15.386                     0.25
    30                 -15.3773                     0.25                 -15.3773                     0.25
    31                  -15.129                     0.25                  -15.129                     0.25
    32                 -14.6811                     0.25                 -14.6811                     0.25
    33                 -14.4799                     0.25                 -14.4799                     0.25
    34                 -14.4654                     0.25                 -14.4654                     0.25
    35                 -14.3084                     0.25                 -14.3084                     0.25
    36                 -14.1606                     0.25                 -14.1606                     0.25
    37                 -13.8739                     0.25                 -13.8739                     0.25
    38                 -13.4933                     0.25                 -13.4933                     0.25
    39                 -13.1648                     0.25                 -13.1648                     0.25
    40                 -13.1342                     0.25                 -13.1342                     0.25
    41                 -13.0788                     0.25                 -13.0788                     0.25
    42                 -13.0418                     0.25                 -13.0418                     0.25
    43                 -13.0305                     0.25                 -13.0305                     0.25
    44                 -12.7899                     0.25                 -12.7899                     0.25
    45                 -12.0184                     0.25                 -12.0184                     0.25
    46                 -11.8667                     0.25                 -11.8667                     0.25
    47                 -11.4717                     0.25                 -11.4717                     0.25
    48                 -10.8267                     0.25                 -10.8267                     0.25
    49                 -10.7768                     0.25                 -10.7768                     0.25
    50                 -10.7152                     0.25                 -10.7152                     0.25
    51                 -10.7088                     0.25                 -10.7088                     0.25
    52                 -10.6925                     0.25                 -10.6925                     0.25
    53                 -10.6879                     0.25                 -10.6879                     0.25
    54                 -10.6811                     0.25                 -10.6811                     0.25
    55                 -10.6456                     0.25                 -10.6456                     0.25
    56                 -10.3879                     0.25                 -10.3879                     0.25
    57                 -10.2372                     0.25                 -10.2372                     0.25
    58                 -10.0378                     0.25                 -10.0378                     0.25
    59                 -9.56725                     0.25                 -9.56725                     0.25
    60                 -9.37965                     0.25                 -9.37965                     0.25
    61                 -9.31994                     0.25                 -9.31994                     0.25
    62                 -9.25387                     0.25                 -9.25387                     0.25
    63                 -9.24348                     0.25                 -9.24348                     0.25
    64                 -9.18334                     0.25                 -9.18334                     0.25
    65                 -9.03105                     0.25                 -9.03105                     0.25
    66                 -8.94412                     0.25                 -8.94412                     0.25
    67                 -8.91179                     0.25                 -8.91179                     0.25
    68                 -8.85627                     0.25                 -8.85627                     0.25
    69                 -8.73405                     0.25                 -8.73405                     0.25
    70                  -8.5374                     0.25                  -8.5374                     0.25
    71                  -8.3669                     0.25                  -8.3669                     0.25
    72                 -8.30959                     0.25                 -8.30959                     0.25
    73                 -8.23944                     0.25                 -8.23944                     0.25
    74                 -8.21909                     0.25                 -8.21909                     0.25
    75                 -8.19487                     0.25                 -8.19487                     0.25
    76                 -8.13869                     0.25                 -8.13869                     0.25
    77                 -8.06254                     0.25                 -8.06254                     0.25
    78                 -8.04685                     0.25                 -8.04685                     0.25
    79                 -8.01214                     0.25                 -8.01214                     0.25
    80                 -7.98008                     0.25                 -7.98008                     0.25
    81                 -7.95442                     0.25                 -7.95442                     0.25
    82                 -7.94674                     0.25                 -7.94674                     0.25
    83                 -7.92083                     0.25                 -7.92083                     0.25
    84                 -7.88159                     0.25                 -7.88159                     0.25
    85                 -7.85251                     0.25                 -7.85251                     0.25
    86                 -7.59654                     0.25                 -7.59654                     0.25
    87                 -7.48659                     0.25                 -7.48659                     0.25
    88                 -7.37779                     0.25                 -7.37779                     0.25
    89                  -7.0491                     0.25                  -7.0491                     0.25
    90                 -6.92051                     0.25                 -6.92051                     0.25
    91                  -6.7427                     0.25                  -6.7427                     0.25
    92                 -6.56343                     0.25                 -6.56343                     0.25
    93                 -6.48118                     0.25                 -6.48118                     0.25
    94                  -6.4565                     0.25                  -6.4565                     0.25
    95                 -6.36694                     0.25                 -6.36694                     0.25
    96                 -6.34867                     0.25                 -6.34867                     0.25
    97                 -6.33245                     0.25                 -6.33245                     0.25
    98                 -6.21852                     0.25                 -6.21852                     0.25
    99                 -6.09688                     0.25                 -6.09688                     0.25
   100                  -6.0474                     0.25                  -6.0474                     0.25
   101                 -6.01714                     0.25                 -6.01714                     0.25
   102                 -5.94461                     0.25                 -5.94461                     0.25
   103                 -5.89877                     0.25                 -5.89877                     0.25
   104                 -5.84945                     0.25                 -5.84945                     0.25
   105                 -5.71957                     0.25                 -5.71957                     0.25
   106                 -5.52971                     0.25                 -5.52971                     0.25
   107                 -5.38078                     0.25                 -5.38078                     0.25
   108                 -5.31868                     0.25                 -5.31868                     0.25
   109                 -5.22091                     0.25                 -5.22091                     0.25
   110                  -5.1731                     0.25                  -5.1731                     0.25
   111                 -5.16323                     0.25                 -5.16323                     0.25
   112                 -5.07112                     0.25                 -5.07112                     0.25
   113                 -4.91057                     0.25                 -4.91057                     0.25
   114                 -4.89438                     0.25                 -4.89438                     0.25
   115                 -4.86647                     0.25                 -4.86647                     0.25
   116                 -4.31975                     0.25                 -4.31975                     0.25
   117                 -3.60968                     0.25                 -3.60968                     0.25
   118                 -3.27233                     0.25                 -3.27233                     0.25
   119                 -3.22906                     0.25                 -3.22906                     0.25
   120                 -3.20781                     0.25                 -3.20781                     0.25
   121                 -3.06326                     0.25                 -3.06326                     0.25
   122                 -3.00918                     0.25                 -3.00918                     0.25
   123                 -2.39472                     0.25                 -2.39472                     0.25
   124                 -1.71067                        0                 -1.71067                        0
   125                -0.729702                        0                -0.729702                        0
   126                -0.357447                        0                -0.357447                        0
   127                 -0.29389                        0                 -0.29389                        0
   128                -0.276679                        0                -0.276679                        0
   129               -0.0711625                        0               -0.0711624                        0
   130                 0.356621                        0                 0.356621                        0
   131                  1.05327                        0                  1.05327                        0
   132                  1.34377                        0                  1.34377                        0
   133                  1.60164                        0                  1.60164                        0
   134                  1.71423                        0                  1.71423                        0
   135                  1.78546                        0                  1.78546                        0
   136                  1.89347                        0                  1.89347                        0
   137                  2.10477                        0                  2.10477                        0
   138                  2.51344                        0                  2.51344                        0
   139                  2.95458                        0                  2.95458                        0
   140                  3.24408                        0                  3.24408                        0
   141                  3.26483                        0                  3.26483                        0
   142                  3.44097                        0                  3.44097                        0
   143                  3.63953                        0                  3.63953                        0
   144                  4.45883                        0                  4.45883                        0
   145                  4.76075                        0                  4.76075                        0
   146                  5.26717                        0                  5.26717                        0
   147                   5.5479                        0                   5.5479                        0
   148                  5.71629                        0                  5.71629                        0
   149                  5.94901                        0                  5.94901                        0
   150                  5.97332                        0                  5.97332                        0
   151                  5.98732                        0                  5.98732                        0
   152                  6.06294                        0                  6.06294                        0
   153                  6.07305                        0                  6.07305                        0
   154                  6.20881                        0                  6.20881                        0
   155                  6.33184                        0                  6.33184                        0
   156                  6.38421                        0                  6.38421                        0
   157                  6.40318                        0                  6.40318                        0
   158                  6.48929                        0                  6.48929                        0
   159                  6.56339                        0                  6.56339                        0
   160                  6.59747                        0                  6.59747                        0
   161                  6.60382                        0                  6.60382                        0
   162                  6.67257                        0                  6.67257                        0
   163                  6.72774                        0                  6.72774                        0
   164                  6.76456                        0                  6.76456                        0
   165                  6.93491                        0                  6.93491                        0
   166                  7.01886                        0                  7.01886                        0
   167                  7.03121                        0                  7.03121                        0
   168                   7.0704                        0                   7.0704                        0
   169                  7.18175                        0                  7.18175                        0
   170                  7.20409                        0                  7.20409                        0
   171                  7.43668                        0                  7.43668                        0
   172                  7.52915                        0                  7.52915                        0
   173                  7.60483                        0                  7.60483                        0
   174                  7.74275                        0                  7.74275                        0
   175                  7.78532                        0                  7.78532                        0
   176                  7.92099                        0                  7.92099                        0
   177                  8.03286                        0                  8.03286                        0
   178                  8.77693                        0                  8.77693                        0
   179                  8.99129                        0                  8.99129                        0
   180                  9.14132                        0                  9.14132                        0
   181                  9.26933                        0                  9.26933                        0
   182                  9.38252                        0                  9.38252                        0
   183                  9.54786                        0                  9.54786                        0
   184                  9.58532                        0                  9.58532                        0
   185                  9.59778                        0                  9.59778                        0
   186                  9.61143                        0                  9.61143                        0
   187                  9.64357                        0                  9.64357                        0
   188                  9.74555                        0                  9.74555                        0


BAND       Spin up Energy(ev)               Occupation     Spin down Energy(ev)               Occupation                Kpoint = 2                        (0.5 0 0)
     1                  -101.99                     0.25                  -101.99                     0.25
     2                 -56.3134                     0.25                 -56.3134                     0.25
     3                 -56.0154                     0.25                 -56.0154                     0.25
     4                  -55.991                     0.25                  -55.991                     0.25
     5                 -21.0765                     0.25                 -21.0765                     0.25
     6                 -20.9068                     0.25                 -20.9068                     0.25
     7                 -20.5345                     0.25                 -20.5345                     0.25
     8                 -20.3991                     0.25                 -20.3991                     0.25
     9                 -19.6539                     0.25                 -19.6539                     0.25
    10                 -19.6222                     0.25                 -19.6222                     0.25
    11                 -19.5639                     0.25                 -19.5639                     0.25
    12                 -19.3968                     0.25                 -19.3968                     0.25
    13                  -19.073                     0.25                  -19.073                     0.25
    14                 -18.9479                     0.25                 -18.9479                     0.25
    15                 -18.7547                     0.25                 -18.7547                     0.25
    16                  -18.318                     0.25                  -18.318                     0.25
    17                 -18.3059                     0.25                 -18.3059                     0.25
    18                 -17.9314                     0.25                 -17.9314                     0.25
    19                 -17.7827                     0.25                 -17.7827                     0.25
    20                 -16.9533                     0.25                 -16.9533                     0.25
    21                 -16.9091                     0.25                 -16.9091                     0.25
    22                 -16.8154                     0.25                 -16.8154                     0.25
    23                 -16.7293                     0.25                 -16.7293                     0.25
    24                 -16.5561                     0.25                 -16.5561                     0.25
    25                  -16.535                     0.25                  -16.535                     0.25
    26                 -16.5139                     0.25                 -16.5139                     0.25
    27                 -16.4337                     0.25                 -16.4337                     0.25
    28                 -16.1746                     0.25                 -16.1746                     0.25
    29                 -16.1133                     0.25                 -16.1133                     0.25
    30                  -15.421                     0.25                  -15.421                     0.25
    31                 -15.1843                     0.25                 -15.1843                     0.25
    32                 -14.6732                     0.25                 -14.6732                     0.25
    33                 -14.4995                     0.25                 -14.4995                     0.25
    34                 -14.1338                     0.25                 -14.1338                     0.25
    35                  -14.116                     0.25                  -14.116                     0.25
    36                 -13.8451                     0.25                 -13.8451                     0.25
    37                 -13.8292                     0.25                 -13.8292                     0.25
    38                 -13.2044                     0.25                 -13.2044                     0.25
    39                 -13.1537                     0.25                 -13.1537                     0.25
    40                 -13.0935                     0.25                 -13.0935                     0.25
    41                 -13.0037                     0.25                 -13.0037                     0.25
    42                 -12.7082                     0.25                 -12.7082                     0.25
    43                 -12.6686                     0.25                 -12.6686                     0.25
    44                 -12.1429                     0.25                 -12.1429                     0.25
    45                 -12.0686                     0.25                 -12.0686                     0.25
    46                  -11.878                     0.25                  -11.878                     0.25
    47                 -11.8452                     0.25                 -11.8452                     0.25
    48                 -11.8395                     0.25                 -11.8395                     0.25
    49                 -11.6274                     0.25                 -11.6274                     0.25
    50                 -11.4358                     0.25                 -11.4358                     0.25
    51                 -10.9855                     0.25                 -10.9855                     0.25
    52                 -10.7332                     0.25                 -10.7332                     0.25
    53                 -10.4537                     0.25                 -10.4537                     0.25
    54                 -10.3969                     0.25                 -10.3969                     0.25
    55                 -10.3718                     0.25                 -10.3718                     0.25
    56                 -10.1726                     0.25                 -10.1726                     0.25
    57                 -10.1028                     0.25                 -10.1028                     0.25
    58                 -9.86886                     0.25                 -9.86886                     0.25
    59                 -9.56454                     0.25                 -9.56454                     0.25
    60                 -9.30551                     0.25                 -9.30551                     0.25
    61                 -9.27415                     0.25                 -9.27415                     0.25
    62                 -9.14483                     0.25                 -9.14483                     0.25
    63                 -9.08164                     0.25                 -9.08164                     0.25
    64                 -9.05461                     0.25                 -9.05461                     0.25
    65                 -8.95566                     0.25                 -8.95566                     0.25
    66                 -8.93157                     0.25                 -8.93157                     0.25
    67                 -8.88581                     0.25                 -8.88581                     0.25
    68                 -8.82701                     0.25                 -8.82701                     0.25
    69                 -8.78852                     0.25                 -8.78852                     0.25
    70                 -8.64501                     0.25                 -8.64501                     0.25
    71                 -8.56327                     0.25                 -8.56327                     0.25
    72                 -8.53425                     0.25                 -8.53425                     0.25
    73                 -8.47024                     0.25                 -8.47024                     0.25
    74                 -8.45287                     0.25                 -8.45287                     0.25
    75                  -8.3365                     0.25                  -8.3365                     0.25
    76                  -8.2539                     0.25                  -8.2539                     0.25
    77                 -8.10401                     0.25                 -8.10401                     0.25
    78                 -7.86393                     0.25                 -7.86393                     0.25
    79                 -7.85708                     0.25                 -7.85708                     0.25
    80                 -7.74774                     0.25                 -7.74773                     0.25
    81                 -7.63564                     0.25                 -7.63564                     0.25
    82                  -7.5892                     0.25                  -7.5892                     0.25
    83                 -7.51425                     0.25                 -7.51425                     0.25
    84                 -7.49504                     0.25                 -7.49504                     0.25
    85                  -7.4378                     0.25                  -7.4378                     0.25
    86                 -7.39148                     0.25                 -7.39148                     0.25
    87                 -7.35456                     0.25                 -7.35456                     0.25
    88                 -7.31463                     0.25                 -7.31463                     0.25
    89                   -7.254                     0.25                   -7.254                     0.25
    90                 -7.20097                     0.25                 -7.20097                     0.25
    91                 -7.12398                     0.25                 -7.12398                     0.25
    92                 -6.99086                     0.25                 -6.99086                     0.25
    93                 -6.80156                     0.25                 -6.80156                     0.25
    94                 -6.61293                     0.25                 -6.61293                     0.25
    95                 -6.59378                     0.25                 -6.59378                     0.25
    96                 -6.49316                     0.25                 -6.49316                     0.25
    97                 -6.39654                     0.25                 -6.39654                     0.25
    98                  -6.3597                     0.25                  -6.3597                     0.25
    99                 -6.22507                     0.25                 -6.22507                     0.25
   100                 -6.07757                     0.25                 -6.07757                     0.25
   101                 -5.88591                     0.25                 -5.88591                     0.25
   102                 -5.87912                     0.25                 -5.87912                     0.25
   103                 -5.77824                     0.25                 -5.77824                     0.25
   104                 -5.75865                     0.25                 -5.75865                     0.25
   105                 -5.70643                     0.25                 -5.70643                     0.25
   106                 -5.61353                     0.25                 -5.61353                     0.25
   107                 -5.53803                     0.25                 -5.53803                     0.25
   108                 -5.42519                     0.25                 -5.42519                     0.25
   109                 -5.37351                     0.25                 -5.37351                     0.25
   110                 -5.22297                     0.25                 -5.22297                     0.25
   111                 -4.86133                     0.25                 -4.86133                     0.25
   112                 -4.45606                     0.25                 -4.45606                     0.25
   113                 -4.38183                     0.25                 -4.38183                     0.25
   114                 -4.36432                     0.25                 -4.36432                     0.25
   115                 -4.27922                     0.25                 -4.27922                     0.25
   116                 -4.24861                     0.25                 -4.24861                     0.25
   117                 -4.16095                     0.25                 -4.16095                     0.25
   118                 -4.08804                     0.25                 -4.08804                     0.25
   119                 -3.94068                     0.25                 -3.94068                     0.25
   120                   -3.606                     0.25                   -3.606                     0.25
   121                 -3.09777                     0.25                 -3.09777                     0.25
   122                 -2.73115                     0.25                 -2.73115                     0.25
   123                  -2.1712                     0.25                  -2.1712                     0.25
   124                 -1.73964                        0                 -1.73964                        0
   125                -0.876873                        0                -0.876873                        0
   126                -0.466459                        0                -0.466459                        0
   127                 0.153211                        0                 0.153211                        0
   128                 0.312859                        0                 0.312859                        0
   129                 0.470466                        0                 0.470466                        0
   130                 0.529614                        0                 0.529614                        0
   131                 0.824214                        0                 0.824214                        0
   132                 0.862867                        0                 0.862867                        0
   133                 0.987811                        0                 0.987811                        0
   134                  1.11689                        0                  1.11689                        0
   135                  1.61464                        0                  1.61464                        0
   136                  1.99043                        0                  1.99043                        0
   137                  2.24433                        0                  2.24433                        0
   138                  2.52858                        0                  2.52858                        0
   139                    2.811                        0                    2.811                        0
   140                  2.85953                        0                  2.85953                        0
   141                  3.64542                        0                  3.64542                        0
   142                  4.29666                        0                  4.29666                        0
   143                  4.47017                        0                  4.47017                        0
   144                  4.74447                        0                  4.74447                        0
   145                  4.79978                        0                  4.79978                        0
   146                  5.05475                        0                  5.05475                        0
   147                  5.33735                        0                  5.33735                        0
   148                  5.50582                        0                  5.50582                        0
   149                  5.66937                        0                  5.66937                        0
   150                  5.74702                        0                  5.74702                        0
   151                  5.95171                        0                  5.95171                        0
   152                  6.03474                        0                  6.03474                        0
   153                   6.2218                        0                   6.2218                        0
   154                  6.33127                        0                  6.33127                        0
   155                  6.40487                        0                  6.40487                        0
   156                  6.51115                        0                  6.51115                        0
   157                  6.55783                        0                  6.55783                        0
   158                  6.58777                        0                  6.58777                        0
   159                  6.65741                        0                  6.65741                        0
   160                  6.78011                        0                  6.78011                        0
   161                  6.82926                        0                  6.82926                        0
   162                  6.96852                        0                  6.96852                        0
   163                  7.02906                        0                  7.02906                        0
   164                  7.07203                        0                  7.07203                        0
   165                  7.07823                        0                  7.07823                        0
   166                  7.14066                        0                  7.14066                        0
   167                  7.19945                        0                  7.19945                        0
   168                  7.28026                        0                  7.28026                        0
   169                  7.31099                        0                  7.31099                        0
   170                  7.36311                        0                  7.36311                        0
   171                  7.49544                        0                  7.49544                        0
   172                  7.55571                        0                  7.55571                        0
   173                  7.59477                        0                  7.59477                        0
   174                   7.6146                        0                   7.6146                        0
   175                  7.69592                        0                  7.69592                        0
   176                  7.74451                        0                  7.74451                        0
   177                  7.85501                        0                  7.85501                        0
   178                  7.95731                        0                  7.95731                        0
   179                  8.02229                        0                  8.02229                        0
   180                  8.12887                        0                  8.12887                        0
   181                  8.30222                        0                  8.30222                        0
   182                  8.57997                        0                  8.57997                        0
   183                  8.69929                        0                  8.69929                        0
   184                  8.92532                        0                  8.92532                        0
   185                  9.02207                        0                  9.02207                        0
   186                  9.07187                        0                  9.07187                        0
   187                  9.16488                        0                  9.16488                        0
   188                  9.25122                        0                  9.25122                        0


BAND       Spin up Energy(ev)               Occupation     Spin down Energy(ev)               Occupation                Kpoint = 3                        (0 0 0.5)
     1                  -101.99                     0.25                  -101.99                     0.25
     2                 -56.3134                     0.25                 -56.3134                     0.25
     3                 -56.0154                     0.25                 -56.0154                     0.25
     4                  -55.991                     0.25                  -55.991                     0.25
     5                 -21.0272                     0.25                 -21.0272                     0.25
     6                 -20.9721                     0.25                 -20.9721                     0.25
     7                 -20.5918                     0.25                 -20.5918                     0.25
     8                 -20.2854                     0.25                 -20.2854                     0.25
     9                 -19.6911                     0.25                 -19.6911                     0.25
    10                 -19.6469                     0.25                 -19.6469                     0.25
    11                 -19.5286                     0.25                 -19.5286                     0.25
    12                 -19.4019                     0.25                 -19.4019                     0.25
    13                  -19.005                     0.25                  -19.005                     0.25
    14                 -18.9673                     0.25                 -18.9673                     0.25
    15                 -18.9029                     0.25                 -18.9029                     0.25
    16                 -18.2775                     0.25                 -18.2775                     0.25
    17                 -18.2108                     0.25                 -18.2108                     0.25
    18                 -18.1328                     0.25                 -18.1328                     0.25
    19                 -17.4421                     0.25                 -17.4421                     0.25
    20                  -17.016                     0.25                  -17.016                     0.25
    21                 -16.9626                     0.25                 -16.9626                     0.25
    22                 -16.8233                     0.25                 -16.8233                     0.25
    23                 -16.8048                     0.25                 -16.8048                     0.25
    24                 -16.5618                     0.25                 -16.5618                     0.25
    25                 -16.5273                     0.25                 -16.5273                     0.25
    26                 -16.5005                     0.25                 -16.5005                     0.25
    27                 -16.4762                     0.25                 -16.4762                     0.25
    28                 -16.3229                     0.25                 -16.3229                     0.25
    29                 -15.7901                     0.25                 -15.7901                     0.25
    30                   -15.53                     0.25                   -15.53                     0.25
    31                 -15.1862                     0.25                 -15.1862                     0.25
    32                 -14.9827                     0.25                 -14.9827                     0.25
    33                  -14.491                     0.25                  -14.491                     0.25
    34                 -14.1443                     0.25                 -14.1443                     0.25
    35                 -13.9052                     0.25                 -13.9052                     0.25
    36                 -13.7128                     0.25                 -13.7128                     0.25
    37                 -13.6481                     0.25                 -13.6481                     0.25
    38                 -13.2284                     0.25                 -13.2284                     0.25
    39                 -13.1539                     0.25                 -13.1539                     0.25
    40                 -13.0938                     0.25                 -13.0938                     0.25
    41                 -12.8952                     0.25                 -12.8952                     0.25
    42                 -12.7768                     0.25                 -12.7768                     0.25
    43                 -12.6592                     0.25                 -12.6592                     0.25
    44                 -12.3185                     0.25                 -12.3185                     0.25
    45                 -12.0795                     0.25                 -12.0795                     0.25
    46                 -11.9349                     0.25                 -11.9349                     0.25
    47                 -11.8796                     0.25                 -11.8796                     0.25
    48                 -11.8748                     0.25                 -11.8748                     0.25
    49                 -11.6929                     0.25                 -11.6929                     0.25
    50                 -11.6268                     0.25                 -11.6268                     0.25
    51                 -10.8892                     0.25                 -10.8892                     0.25
    52                 -10.8299                     0.25                 -10.8299                     0.25
    53                 -10.3313                     0.25                 -10.3313                     0.25
    54                 -10.3091                     0.25                 -10.3091                     0.25
    55                 -10.2692                     0.25                 -10.2692                     0.25
    56                 -10.2392                     0.25                 -10.2392                     0.25
    57                 -9.99183                     0.25                 -9.99183                     0.25
    58                 -9.74884                     0.25                 -9.74884                     0.25
    59                 -9.62784                     0.25                 -9.62784                     0.25
    60                 -9.33194                     0.25                 -9.33194                     0.25
    61                 -9.15425                     0.25                 -9.15425                     0.25
    62                  -9.0801                     0.25                  -9.0801                     0.25
    63                 -9.02417                     0.25                 -9.02417                     0.25
    64                 -9.00832                     0.25                 -9.00832                     0.25
    65                 -8.97689                     0.25                 -8.97689                     0.25
    66                  -8.9599                     0.25                  -8.9599                     0.25
    67                 -8.91998                     0.25                 -8.91998                     0.25
    68                 -8.85717                     0.25                 -8.85717                     0.25
    69                 -8.80071                     0.25                 -8.80071                     0.25
    70                 -8.72453                     0.25                 -8.72453                     0.25
    71                 -8.66146                     0.25                 -8.66146                     0.25
    72                 -8.56866                     0.25                 -8.56866                     0.25
    73                 -8.53333                     0.25                 -8.53333                     0.25
    74                 -8.45918                     0.25                 -8.45918                     0.25
    75                 -8.38333                     0.25                 -8.38333                     0.25
    76                 -8.21613                     0.25                 -8.21613                     0.25
    77                 -8.16478                     0.25                 -8.16478                     0.25
    78                 -7.89196                     0.25                 -7.89196                     0.25
    79                 -7.84345                     0.25                 -7.84345                     0.25
    80                 -7.74281                     0.25                 -7.74281                     0.25
    81                 -7.61711                     0.25                 -7.61711                     0.25
    82                 -7.56187                     0.25                 -7.56187                     0.25
    83                 -7.53579                     0.25                 -7.53579                     0.25
    84                 -7.46124                     0.25                 -7.46124                     0.25
    85                 -7.38735                     0.25                 -7.38735                     0.25
    86                 -7.37951                     0.25                 -7.37951                     0.25
    87                  -7.3271                     0.25                  -7.3271                     0.25
    88                 -7.26542                     0.25                 -7.26542                     0.25
    89                 -7.25407                     0.25                 -7.25407                     0.25
    90                 -7.15806                     0.25                 -7.15806                     0.25
    91                 -7.13066                     0.25                 -7.13066                     0.25
    92                 -6.94959                     0.25                 -6.94959                     0.25
    93                 -6.92291                     0.25                 -6.92291                     0.25
    94                 -6.64277                     0.25                 -6.64277                     0.25
    95                 -6.53091                     0.25                 -6.53091                     0.25
    96                 -6.50348                     0.25                 -6.50348                     0.25
    97                 -6.45825                     0.25                 -6.45825                     0.25
    98                 -6.33413                     0.25                 -6.33413                     0.25
    99                 -6.23337                     0.25                 -6.23337                     0.25
   100                 -5.97609                     0.25                 -5.97609                     0.25
   101                 -5.92628                     0.25                 -5.92628                     0.25
   102                 -5.86577                     0.25                 -5.86577                     0.25
   103                 -5.81476                     0.25                 -5.81476                     0.25
   104                 -5.78478                     0.25                 -5.78478                     0.25
   105                 -5.70407                     0.25                 -5.70407                     0.25
   106                 -5.65471                     0.25                 -5.65471                     0.25
   107                 -5.58522                     0.25                 -5.58522                     0.25
   108                 -5.45951                     0.25                 -5.45951                     0.25
   109                 -5.31698                     0.25                 -5.31698                     0.25
   110                 -5.11068                     0.25                 -5.11068                     0.25
   111                 -4.99794                     0.25                 -4.99794                     0.25
   112                  -4.4224                     0.25                  -4.4224                     0.25
   113                 -4.38807                     0.25                 -4.38807                     0.25
   114                 -4.35417                     0.25                 -4.35417                     0.25
   115                 -4.28413                     0.25                 -4.28413                     0.25
   116                 -4.20158                     0.25                 -4.20158                     0.25
   117                 -4.14944                     0.25                 -4.14944                     0.25
   118                 -4.09479                     0.25                 -4.09479                     0.25
   119                 -3.98532                     0.25                 -3.98532                     0.25
   120                 -3.57626                     0.25                 -3.57626                     0.25
   121                 -2.92328                     0.25                 -2.92328                     0.25
   122                 -2.78005                     0.25                 -2.78005                     0.25
   123                 -2.56886                     0.25                 -2.56886                     0.25
   124                 -1.53892                        0                 -1.53892                        0
   125                -0.650841                        0                -0.650841                        0
   126                -0.377424                        0                -0.377424                        0
   127                -0.218127                        0                -0.218127                        0
   128                 0.406547                        0                 0.406547                        0
   129                 0.501635                        0                 0.501635                        0
   130                 0.756086                        0                 0.756086                        0
   131                 0.780283                        0                 0.780283                        0
   132                 0.843099                        0                 0.843099                        0
   133                  1.05044                        0                  1.05044                        0
   134                  1.21619                        0                  1.21619                        0
   135                  1.29572                        0                  1.29572                        0
   136                  1.73917                        0                  1.73917                        0
   137                  2.05841                        0                  2.05841                        0
   138                  2.74565                        0                  2.74565                        0
   139                  2.83209                        0                  2.83209                        0
   140                  3.27492                        0                  3.27492                        0
   141                  3.80713                        0                  3.80713                        0
   142                  4.01908                        0                  4.01908                        0
   143                  4.46026                        0                  4.46026                        0
   144                  4.74009                        0                  4.74009                        0
   145                  4.78382                        0                  4.78382                        0
   146                  4.99732                        0                  4.99732                        0
   147                  5.40978                        0                  5.40978                        0
   148                  5.44935                        0                  5.44935                        0
   149                  5.61394                        0                  5.61394                        0
   150                  5.74645                        0                  5.74645                        0
   151                  6.04646                        0                  6.04646                        0
   152                  6.08501                        0                  6.08501                        0
   153                  6.22314                        0                  6.22314                        0
   154                   6.3263                        0                   6.3263                        0
   155                  6.40286                        0                  6.40286                        0
   156                  6.48799                        0                  6.48799                        0
   157                   6.5448                        0                   6.5448                        0
   158                  6.57952                        0                  6.57952                        0
   159                  6.72955                        0                  6.72955                        0
   160                  6.76217                        0                  6.76217                        0
   161                  6.79006                        0                  6.79006                        0
   162                  6.95109                        0                  6.95109                        0
   163                   7.0035                        0                   7.0035                        0
   164                  7.00816                        0                  7.00816                        0
   165                   7.0392                        0                   7.0392                        0
   166                  7.08143                        0                  7.08143                        0
   167                   7.2061                        0                   7.2061                        0
   168                  7.27007                        0                  7.27007                        0
   169                  7.35171                        0                  7.35171                        0
   170                  7.35731                        0                  7.35731                        0
   171                  7.45323                        0                  7.45323                        0
   172                  7.47577                        0                  7.47577                        0
   173                  7.53967                        0                  7.53967                        0
   174                  7.57249                        0                  7.57249                        0
   175                  7.67362                        0                  7.67362                        0
   176                  7.80286                        0                  7.80286                        0
   177                  7.90003                        0                  7.90003                        0
   178                  7.95031                        0                  7.95031                        0
   179                  8.08521                        0                  8.08521                        0
   180                  8.21865                        0                  8.21865                        0
   181                  8.38725                        0                  8.38725                        0
   182                   8.4158                        0                   8.4158                        0
   183                  8.60381                        0                  8.60381                        0
   184                  8.77661                        0                  8.77661                        0
   185                  8.86641                        0                  8.86641                        0
   186                  8.99835                        0                  8.99835                        0
   187                  9.03259                        0                  9.03259                        0
   188                  9.26637                        0                  9.26637                        0


BAND       Spin up Energy(ev)               Occupation     Spin down Energy(ev)               Occupation                Kpoint = 4                        (0.5 0 0.5)
     1                  -101.99                     0.25                  -101.99                     0.25
     2                 -56.3134                     0.25                 -56.3134                     0.25
     3                 -56.0154                     0.25                 -56.0154                     0.25
     4                  -55.991                     0.25                  -55.991                     0.25
     5                 -21.0803                     0.25                 -21.0803                     0.25
     6                 -20.9001                     0.25                 -20.9001                     0.25
     7                 -20.5283                     0.25                 -20.5283                     0.25
     8                 -20.4111                     0.25                 -20.4111                     0.25
     9                 -19.6508                     0.25                 -19.6508                     0.25
    10                 -19.6301                     0.25                 -19.6301                     0.25
    11                   -19.55                     0.25                   -19.55                     0.25
    12                 -19.4044                     0.25                 -19.4044                     0.25
    13                  -19.083                     0.25                  -19.083                     0.25
    14                 -18.9506                     0.25                 -18.9506                     0.25
    15                 -18.7235                     0.25                 -18.7235                     0.25
    16                 -18.3244                     0.25                 -18.3244                     0.25
    17                 -18.3073                     0.25                 -18.3073                     0.25
    18                  -17.922                     0.25                  -17.922                     0.25
    19                 -17.8128                     0.25                 -17.8128                     0.25
    20                 -16.9498                     0.25                 -16.9498                     0.25
    21                  -16.902                     0.25                  -16.902                     0.25
    22                 -16.8203                     0.25                 -16.8203                     0.25
    23                 -16.7206                     0.25                 -16.7206                     0.25
    24                 -16.5514                     0.25                 -16.5514                     0.25
    25                 -16.5369                     0.25                 -16.5369                     0.25
    26                 -16.5051                     0.25                 -16.5051                     0.25
    27                  -16.438                     0.25                  -16.438                     0.25
    28                 -16.1759                     0.25                 -16.1759                     0.25
    29                  -16.143                     0.25                  -16.143                     0.25
    30                 -15.3925                     0.25                 -15.3925                     0.25
    31                 -15.1638                     0.25                 -15.1638                     0.25
    32                 -14.6791                     0.25                 -14.6791                     0.25
    33                 -14.4896                     0.25                 -14.4896                     0.25
    34                 -14.1415                     0.25                 -14.1415                     0.25
    35                 -14.1293                     0.25                 -14.1293                     0.25
    36                  -13.868                     0.25                  -13.868                     0.25
    37                 -13.8498                     0.25                 -13.8498                     0.25
    38                 -13.1893                     0.25                 -13.1893                     0.25
    39                 -13.1488                     0.25                 -13.1488                     0.25
    40                 -13.1072                     0.25                 -13.1072                     0.25
    41                  -12.992                     0.25                  -12.992                     0.25
    42                 -12.7023                     0.25                 -12.7023                     0.25
    43                 -12.6561                     0.25                 -12.6561                     0.25
    44                 -12.1517                     0.25                 -12.1517                     0.25
    45                 -12.0459                     0.25                 -12.0459                     0.25
    46                  -11.868                     0.25                  -11.868                     0.25
    47                 -11.8457                     0.25                 -11.8457                     0.25
    48                 -11.8414                     0.25                 -11.8414                     0.25
    49                 -11.6413                     0.25                 -11.6413                     0.25
    50                 -11.4722                     0.25                 -11.4722                     0.25
    51                 -10.9566                     0.25                 -10.9566                     0.25
    52                 -10.8098                     0.25                 -10.8098                     0.25
    53                  -10.412                     0.25                  -10.412                     0.25
    54                  -10.391                     0.25                  -10.391                     0.25
    55                 -10.2703                     0.25                 -10.2703                     0.25
    56                 -10.1661                     0.25                 -10.1661                     0.25
    57                 -10.1373                     0.25                 -10.1373                     0.25
    58                 -9.87898                     0.25                 -9.87898                     0.25
    59                 -9.49868                     0.25                 -9.49868                     0.25
    60                 -9.38571                     0.25                 -9.38571                     0.25
    61                 -9.29151                     0.25                 -9.29151                     0.25
    62                 -9.16889                     0.25                 -9.16889                     0.25
    63                 -9.09479                     0.25                 -9.09479                     0.25
    64                 -9.03498                     0.25                 -9.03498                     0.25
    65                 -8.97823                     0.25                 -8.97823                     0.25
    66                 -8.91248                     0.25                 -8.91248                     0.25
    67                 -8.87175                     0.25                 -8.87175                     0.25
    68                 -8.83449                     0.25                 -8.83449                     0.25
    69                 -8.79367                     0.25                 -8.79367                     0.25
    70                 -8.64217                     0.25                 -8.64217                     0.25
    71                 -8.59524                     0.25                 -8.59524                     0.25
    72                   -8.494                     0.25                   -8.494                     0.25
    73                  -8.4864                     0.25                  -8.4864                     0.25
    74                 -8.44012                     0.25                 -8.44012                     0.25
    75                 -8.37092                     0.25                 -8.37092                     0.25
    76                 -8.25201                     0.25                 -8.25201                     0.25
    77                 -8.10588                     0.25                 -8.10588                     0.25
    78                 -7.92433                     0.25                 -7.92433                     0.25
    79                 -7.77772                     0.25                 -7.77772                     0.25
    80                 -7.74012                     0.25                 -7.74012                     0.25
    81                 -7.63375                     0.25                 -7.63375                     0.25
    82                 -7.53378                     0.25                 -7.53378                     0.25
    83                  -7.5278                     0.25                  -7.5278                     0.25
    84                 -7.46661                     0.25                 -7.46661                     0.25
    85                 -7.43897                     0.25                 -7.43897                     0.25
    86                 -7.41804                     0.25                 -7.41804                     0.25
    87                 -7.34211                     0.25                 -7.34211                     0.25
    88                 -7.29919                     0.25                 -7.29919                     0.25
    89                 -7.26498                     0.25                 -7.26498                     0.25
    90                 -7.21345                     0.25                 -7.21345                     0.25
    91                 -7.15585                     0.25                 -7.15585                     0.25
    92                 -6.94831                     0.25                 -6.94831                     0.25
    93                 -6.83604                     0.25                 -6.83604                     0.25
    94                  -6.6604                     0.25                  -6.6604                     0.25
    95                 -6.57506                     0.25                 -6.57506                     0.25
    96                 -6.54803                     0.25                 -6.54803                     0.25
    97                 -6.40565                     0.25                 -6.40565                     0.25
    98                 -6.31965                     0.25                 -6.31965                     0.25
    99                 -6.09801                     0.25                 -6.09801                     0.25
   100                 -6.07486                     0.25                 -6.07486                     0.25
   101                 -6.02051                     0.25                 -6.02051                     0.25
   102                 -5.86844                     0.25                 -5.86844                     0.25
   103                 -5.85817                     0.25                 -5.85817                     0.25
   104                 -5.74496                     0.25                 -5.74496                     0.25
   105                 -5.71336                     0.25                 -5.71336                     0.25
   106                 -5.57219                     0.25                 -5.57219                     0.25
   107                 -5.52535                     0.25                 -5.52535                     0.25
   108                  -5.4178                     0.25                  -5.4178                     0.25
   109                 -5.36061                     0.25                 -5.36061                     0.25
   110                 -5.15912                     0.25                 -5.15912                     0.25
   111                 -4.86071                     0.25                 -4.86071                     0.25
   112                 -4.47243                     0.25                 -4.47243                     0.25
   113                 -4.38389                     0.25                 -4.38389                     0.25
   114                 -4.34963                     0.25                 -4.34963                     0.25
   115                  -4.2781                     0.25                  -4.2781                     0.25
   116                 -4.23232                     0.25                 -4.23232                     0.25
   117                 -4.17759                     0.25                 -4.17759                     0.25
   118                 -4.07126                     0.25                 -4.07126                     0.25
   119                 -3.96502                     0.25                 -3.96502                     0.25
   120                 -3.61255                     0.25                 -3.61255                     0.25
   121                 -3.10654                     0.25                 -3.10654                     0.25
   122                 -2.74035                     0.25                 -2.74035                     0.25
   123                  -2.1712                     0.25                  -2.1712                     0.25
   124                  -1.7399                        0                  -1.7399                        0
   125                -0.886326                        0                -0.886326                        0
   126                 -0.47343                        0                 -0.47343                        0
   127                  0.15761                        0                  0.15761                        0
   128                 0.314465                        0                 0.314465                        0
   129                 0.466138                        0                 0.466139                        0
   130                 0.543715                        0                 0.543715                        0
   131                 0.813813                        0                 0.813814                        0
   132                 0.907422                        0                 0.907422                        0
   133                 0.977267                        0                 0.977267                        0
   134                  1.12734                        0                  1.12734                        0
   135                  1.68069                        0                  1.68069                        0
   136                  1.88064                        0                  1.88064                        0
   137                  2.21079                        0                  2.21079                        0
   138                  2.57743                        0                  2.57743                        0
   139                   2.7783                        0                   2.7783                        0
   140                  2.84655                        0                  2.84655                        0
   141                  3.70094                        0                  3.70094                        0
   142                   4.3284                        0                   4.3284                        0
   143                  4.46342                        0                  4.46342                        0
   144                  4.69314                        0                  4.69314                        0
   145                  4.83024                        0                  4.83024                        0
   146                  5.06363                        0                  5.06363                        0
   147                  5.32841                        0                  5.32841                        0
   148                  5.52505                        0                  5.52505                        0
   149                  5.66937                        0                  5.66937                        0
   150                  5.75096                        0                  5.75096                        0
   151                  5.94908                        0                  5.94908                        0
   152                  6.03308                        0                  6.03308                        0
   153                  6.22311                        0                  6.22311                        0
   154                  6.33434                        0                  6.33434                        0
   155                  6.40691                        0                  6.40691                        0
   156                  6.48834                        0                  6.48834                        0
   157                  6.54448                        0                  6.54448                        0
   158                  6.57936                        0                  6.57936                        0
   159                  6.65184                        0                  6.65184                        0
   160                  6.77464                        0                  6.77464                        0
   161                  6.81974                        0                  6.81974                        0
   162                  6.95677                        0                  6.95677                        0
   163                  6.98062                        0                  6.98062                        0
   164                  7.04429                        0                  7.04429                        0
   165                  7.09641                        0                  7.09641                        0
   166                  7.12927                        0                  7.12927                        0
   167                  7.19986                        0                  7.19986                        0
   168                  7.28903                        0                  7.28903                        0
   169                  7.31995                        0                  7.31995                        0
   170                  7.35345                        0                  7.35345                        0
   171                  7.52745                        0                  7.52745                        0
   172                  7.56615                        0                  7.56615                        0
   173                  7.58343                        0                  7.58343                        0
   174                  7.66931                        0                  7.66931                        0
   175                  7.70315                        0                  7.70315                        0
   176                  7.76291                        0                  7.76291                        0
   177                   7.8608                        0                   7.8608                        0
   178                  7.93532                        0                  7.93532                        0
   179                  8.02106                        0                  8.02106                        0
   180                  8.15299                        0                  8.15299                        0
   181                  8.28176                        0                  8.28176                        0
   182                  8.64102                        0                  8.64102                        0
   183                  8.68104                        0                  8.68104                        0
   184                   8.9201                        0                   8.9201                        0
   185                  8.95857                        0                  8.95857                        0
   186                  9.02883                        0                  9.02883                        0
   187                  9.19534                        0                  9.19534                        0
   188                  9.30725                        0                  9.30725                        0


