BAND               Energy(ev)               Occupation                Kpoint = 1                        (0 0 0)
     1                 -40.4414                     0.25
     2                 -5.67679                     0.25
     3                 -4.62946                     0.25
     4                 -4.61677                     0.25
     5                 -4.61652                     0.25
     6                 -4.61651                     0.25
     7                 -4.58233                     0.25
     8                 -4.58232                     0.25
     9                 -3.69425                     0.25
    10                  -3.6939                     0.25
    11                 -3.69388                     0.25
    12                 -3.65424                     0.25
    13                 -3.65409                     0.25
    14                 -3.65409                     0.25
    15                 -3.65279                     0.25
    16                  -3.6296                     0.25
    17                 -3.62959                     0.25
    18                 -3.61453                     0.25
    19                 -3.61452                     0.25
    20                 -3.61448                     0.25
    21                 -3.37212                     0.25
    22                  -3.3469                     0.25
    23                 -3.34688                     0.25
    24                 -3.34688                     0.25
    25                  -1.5784                     0.25
    26                 -1.57804                     0.25
    27                 -1.57803                     0.25
    28                 -1.56939                     0.25
    29                 -1.53567                     0.25
    30                 -1.53566                     0.25
    31                 -1.40447                     0.25
    32                 -1.40439                     0.25
    33                 -1.40438                     0.25
    34                 -1.39375                     0.25
    35                 -1.39348                     0.25
    36                 -1.39346                     0.25
    37                 -1.36809                     0.25
    38                 -1.36808                     0.25
    39                 -1.36266                     0.25
    40                 -1.36265                     0.25
    41                 -1.36265                     0.25
    42                  -1.3465                     0.25
    43                -0.706848                     0.25
    44                -0.691343                     0.25
    45                 -0.69134                     0.25
    46                -0.691334                     0.25
    47                 0.759019                     0.25
    48                  0.75935                     0.25
    49                 0.759359                     0.25
    50                 0.767369                     0.25
    51                 0.790875                     0.25
    52                 0.790989                     0.25
    53                 0.790993                     0.25
    54                 0.808418                     0.25
    55                 0.808422                     0.25
    56                 0.811937                     0.25
    57                 0.811993                     0.25
    58                 0.811994                     0.25
    59                  2.34231                     0.25
    60                  2.34872                     0.25
    61                  2.34876                     0.25
    62                  2.34878                     0.25
    63                  2.43802                     0.25
    64                  2.43803                     0.25
    65                  2.43814                     0.25
    66                  2.44295                     0.25
    67                  2.44295                     0.25
    68                  2.46492                     0.25
    69                  2.46493                     0.25
    70                  2.46494                     0.25
    71                  2.53177                     0.25
    72                  2.53178                     0.25
    73                   2.5318                     0.25
    74                  2.53683                     0.25
    75                  2.54134                     0.25
    76                  2.54134                     0.25
    77                  2.54135                     0.25
    78                  2.54389                     0.25
    79                   2.5439                     0.25
    80                  2.55824                     0.25
    81                  2.55825                     0.25
    82                  2.55836                     0.25
    83                  2.74448                     0.25
    84                  2.75725                     0.25
    85                  2.75735                     0.25
    86                  2.75735                     0.25
    87                  2.76239                     0.25
    88                  2.76239                     0.25
    89                  3.41157                     0.25
    90                  3.41168                     0.25
    91                  3.41168                     0.25
    92                  3.48486                     0.25
    93                  3.48488                     0.25
    94                  3.48489                     0.25
    95                  4.35104                     0.25
    96                  4.35144                     0.25
    97                  4.35145                     0.25
    98                  4.38804                     0.25
    99                  4.38807                     0.25
   100                  4.38807                     0.25
   101                  4.42879                     0.25
   102                  4.42879                     0.25
   103                   4.4288                     0.25
   104                   4.4396                     0.25
   105                   4.4396                     0.25
   106                   4.4396                     0.25
   107                  4.92291                     0.25
   108                  4.92339                     0.25
   109                  4.92339                     0.25
   110                  4.97062                     0.25
   111                  4.97063                     0.25
   112                  4.98616                     0.25
   113                  4.98616                     0.25
   114                  4.98617                     0.25
   115                  5.00134                     0.25
   116                  5.00254                     0.25
   117                  5.00259                     0.25
   118                   5.0026                     0.25
   119                  5.10167                     0.25
   120                  5.10174                     0.25
   121                  5.10174                     0.25
   122                  5.12643                     0.25
   123                  5.12644                     0.25
   124                  5.14113                     0.25
   125                  5.14114                     0.25
   126                  5.14115                     0.25
   127                  6.30722                     0.25
   128                  6.30725                     0.25
   129                  6.30725                     0.25
   130                  7.07622              1.37148e-08
   131                  7.07622              1.37117e-08
   132                  7.07658              1.23893e-08
   133                   7.0963              2.62958e-11
   134                  7.09631              2.62558e-11
   135                  7.12145              2.31759e-15
   136                  7.46921                        0
   137                  7.46964                        0
   138                  7.46965                        0
   139                  7.48233                        0
   140                  7.48233                        0
   141                  7.49026                        0
   142                  7.84555                        0
   143                  7.84565                        0
   144                  7.84565                        0
   145                  7.85757                        0
   146                  8.67584                        0
   147                  8.67598                        0
   148                  8.67599                        0
   149                  8.88144                        0
   150                  8.88157                        0
   151                  8.88157                        0
   152                  8.88352                        0
   153                  8.90018                        0
   154                  8.90019                        0
   155                   8.9212                        0
   156                   8.9212                        0
   157                  8.92121                        0


BAND               Energy(ev)               Occupation                Kpoint = 2                        (0.5 0 0)
     1                 -40.4414                     0.75
     2                 -5.42402                     0.75
     3                 -5.39379                     0.75
     4                 -4.40329                     0.75
     5                 -4.40297                     0.75
     6                 -4.39247                     0.75
     7                 -4.34605                     0.75
     8                 -4.34007                     0.75
     9                 -4.33402                     0.75
    10                 -4.33401                     0.75
    11                 -4.33049                     0.75
    12                 -3.55609                     0.75
    13                 -3.55346                     0.75
    14                 -3.55331                     0.75
    15                 -3.53893                     0.75
    16                 -3.50154                     0.75
    17                 -3.49972                     0.75
    18                 -3.47782                     0.75
    19                 -3.47776                     0.75
    20                 -3.29951                     0.75
    21                 -3.28955                     0.75
    22                 -2.61594                     0.75
    23                 -2.58392                     0.75
    24                 -2.58374                     0.75
    25                 -2.58233                     0.75
    26                 -2.58223                     0.75
    27                 -2.56339                     0.75
    28                 -2.55364                     0.75
    29                  -2.5453                     0.75
    30                 -1.51822                     0.75
    31                 -1.51793                     0.75
    32                 -1.48573                     0.75
    33                 -1.47789                     0.75
    34                 -1.47726                     0.75
    35                 -1.43696                     0.75
    36                 -1.43686                     0.75
    37                 -1.42514                     0.75
    38                -0.332109                     0.75
    39                -0.331957                     0.75
    40                -0.324984                     0.75
    41                 -0.29661                     0.75
    42                -0.296497                     0.75
    43                -0.294589                     0.75
    44                -0.283511                     0.75
    45                -0.270467                     0.75
    46                 -0.12412                     0.75
    47                -0.121681                     0.75
    48                -0.120303                     0.75
    49                -0.120282                     0.75
    50                -0.100555                     0.75
    51               -0.0943862                     0.75
    52               -0.0704732                     0.75
    53               -0.0704488                     0.75
    54                 0.524776                     0.75
    55                 0.524845                     0.75
    56                  1.93562                     0.75
    57                   1.9512                     0.75
    58                  1.95152                     0.75
    59                  1.98307                     0.75
    60                  1.98722                     0.75
    61                  1.98726                     0.75
    62                  1.99144                     0.75
    63                  2.00183                     0.75
    64                  2.02441                     0.75
    65                  2.04569                     0.75
    66                  2.04569                     0.75
    67                   2.0553                     0.75
    68                  2.07478                     0.75
    69                   2.0748                     0.75
    70                  2.07823                     0.75
    71                  2.08703                     0.75
    72                  2.80615                     0.75
    73                  2.80622                     0.75
    74                  2.81567                     0.75
    75                  2.87705                     0.75
    76                  2.87796                     0.75
    77                  2.91985                     0.75
    78                  2.91994                     0.75
    79                  2.92904                     0.75
    80                  3.41928                     0.75
    81                  3.55089                     0.75
    82                  3.55102                     0.75
    83                  3.58412                     0.75
    84                  3.58515                     0.75
    85                  3.58545                     0.75
    86                  3.59879                     0.75
    87                   3.6073                     0.75
    88                  3.65409                     0.75
    89                   3.6542                     0.75
    90                  3.66813                     0.75
    91                  3.69616                     0.75
    92                  3.69619                     0.75
    93                  3.71609                     0.75
    94                  3.72741                     0.75
    95                   3.7325                     0.75
    96                  3.73846                     0.75
    97                  3.73848                     0.75
    98                  3.75121                     0.75
    99                  3.75124                     0.75
   100                   3.8071                     0.75
   101                  3.82026                     0.75
   102                  3.82029                     0.75
   103                  3.83274                     0.75
   104                  3.83282                     0.75
   105                  3.85838                     0.75
   106                  3.87523                     0.75
   107                  3.87525                     0.75
   108                  4.81818                     0.75
   109                   4.8185                     0.75
   110                    4.825                     0.75
   111                  4.88299                     0.75
   112                   4.8891                     0.75
   113                  4.89113                     0.75
   114                  4.89117                     0.75
   115                  4.90517                     0.75
   116                  4.94233                     0.75
   117                  4.97977                     0.75
   118                   5.0192                     0.75
   119                  5.01941                     0.75
   120                  5.03017                     0.75
   121                  5.04372                     0.75
   122                  5.05249                     0.75
   123                  5.05266                     0.75
   124                    5.072                     0.75
   125                  5.08454                     0.75
   126                  5.48112                     0.75
   127                  5.48117                     0.75
   128                   5.5021                     0.75
   129                   5.5022                     0.75
   130                  6.96555                 0.503024
   131                  6.96598                 0.496976
   132                  7.96602                        0
   133                  8.07242                        0
   134                  8.28494                        0
   135                  8.33197                        0
   136                  8.33244                        0
   137                  8.37279                        0
   138                  8.38995                        0
   139                  8.39742                        0
   140                  8.42261                        0
   141                   8.4334                        0
   142                   8.4334                        0
   143                  8.43783                        0
   144                  8.59903                        0
   145                  8.59954                        0
   146                  8.69099                        0
   147                  8.70154                        0
   148                  8.74171                        0
   149                  8.75149                        0
   150                  8.76988                        0
   151                  8.76991                        0
   152                  8.80275                        0
   153                  8.80291                        0
   154                  8.80322                        0
   155                  8.81277                        0
   156                  8.82066                        0
   157                  8.87436                        0


BAND               Energy(ev)               Occupation                Kpoint = 3                        (0.5 0 0.5)
     1                 -40.4414                     0.75
     2                 -5.18189                     0.75
     3                 -5.13761                     0.75
     4                 -5.13753                     0.75
     5                 -5.11919                     0.75
     6                 -4.19981                     0.75
     7                 -4.15754                     0.75
     8                 -4.13123                     0.75
     9                 -4.13112                     0.75
    10                 -4.12012                     0.75
    11                 -4.12007                     0.75
    12                  -4.1155                     0.75
    13                 -4.09387                     0.75
    14                 -3.15065                     0.75
    15                 -3.15038                     0.75
    16                 -3.11862                     0.75
    17                 -3.09304                     0.75
    18                 -3.09255                     0.75
    19                 -3.08176                     0.75
    20                 -3.08165                     0.75
    21                  -3.0664                     0.75
    22                 -2.86302                     0.75
    23                 -2.84433                     0.75
    24                 -2.84425                     0.75
    25                 -2.81357                     0.75
    26                 -2.81202                     0.75
    27                 -2.79579                     0.75
    28                 -2.79573                     0.75
    29                  -2.7884                     0.75
    30                 -1.98586                     0.75
    31                 -1.95717                     0.75
    32                 -1.95713                     0.75
    33                 -1.95625                     0.75
    34                -0.986123                     0.75
    35                -0.954731                     0.75
    36                -0.950121                     0.75
    37                 -0.95001                     0.75
    38                 -0.54213                     0.75
    39                -0.541371                     0.75
    40                -0.541215                     0.75
    41                -0.507209                     0.75
    42                -0.506806                     0.75
    43                 -0.50658                     0.75
    44                -0.506543                     0.75
    45                -0.477898                     0.75
    46                 0.278587                     0.75
    47                 0.283943                     0.75
    48                 0.284073                     0.75
    49                 0.305059                     0.75
    50                 0.310882                     0.75
    51                 0.316588                     0.75
    52                 0.316612                     0.75
    53                 0.342939                     0.75
    54                 0.967806                     0.75
    55                 0.969362                     0.75
    56                 0.974157                     0.75
    57                 0.974276                     0.75
    58                 0.999714                     0.75
    59                 0.999755                     0.75
    60                  1.00287                     0.75
    61                  1.01564                     0.75
    62                  1.97098                     0.75
    63                  1.97163                     0.75
    64                  1.98361                     0.75
    65                  1.98362                     0.75
    66                  2.79043                     0.75
    67                  2.79056                     0.75
    68                  2.80475                     0.75
    69                  2.82698                     0.75
    70                  2.83284                     0.75
    71                  2.83292                     0.75
    72                  2.83605                     0.75
    73                  2.85548                     0.75
    74                  2.86387                     0.75
    75                   2.9086                     0.75
    76                  2.90863                     0.75
    77                  2.94701                     0.75
    78                   2.9524                     0.75
    79                  2.95244                     0.75
    80                  2.95398                     0.75
    81                  2.97687                     0.75
    82                  3.42626                     0.75
    83                  3.52208                     0.75
    84                  3.52217                     0.75
    85                   3.5411                     0.75
    86                   3.5412                     0.75
    87                  3.54431                     0.75
    88                  3.55679                     0.75
    89                  3.56751                     0.75
    90                  3.59908                     0.75
    91                  3.60145                     0.75
    92                  3.60146                     0.75
    93                  3.60618                     0.75
    94                  3.85106                     0.75
    95                   3.8512                     0.75
    96                  3.89233                     0.75
    97                  3.90209                     0.75
    98                  4.10196                     0.75
    99                  4.10198                     0.75
   100                    4.127                     0.75
   101                  4.13286                     0.75
   102                  4.15609                     0.75
   103                  4.15984                     0.75
   104                  4.15992                     0.75
   105                  4.18919                     0.75
   106                  4.41029                     0.75
   107                  4.46094                     0.75
   108                  4.46097                     0.75
   109                  4.46104                     0.75
   110                  4.46996                     0.75
   111                  4.47106                     0.75
   112                   4.4711                     0.75
   113                   4.4882                     0.75
   114                  4.62788                     0.75
   115                  4.65254                     0.75
   116                  4.65277                     0.75
   117                   4.6965                     0.75
   118                  4.71385                     0.75
   119                  4.71388                     0.75
   120                  4.72228                     0.75
   121                  4.72231                     0.75
   122                  4.72303                     0.75
   123                  4.72376                     0.75
   124                  4.73844                     0.75
   125                  4.74514                     0.75
   126                  6.00207                     0.75
   127                  6.00214                     0.75
   128                  6.00226                     0.75
   129                  6.03038                     0.75
   130                  7.54285                        0
   131                  7.59253                        0
   132                  7.59255                        0
   133                  7.59504                        0
   134                  8.28873                        0
   135                  8.31104                        0
   136                   8.3151                        0
   137                  8.31521                        0
   138                  8.33813                        0
   139                  8.33816                        0
   140                  8.35102                        0
   141                  8.38179                        0
   142                  8.54357                        0
   143                  8.58618                        0
   144                   8.6252                        0
   145                  8.62528                        0
   146                  8.66708                        0
   147                  8.67771                        0
   148                  8.67772                        0
   149                  8.68508                        0
   150                   8.9826                        0
   151                   8.9833                        0
   152                  9.10801                        0
   153                  9.21036                        0
   154                  9.21046                        0
   155                  9.21589                        0
   156                  9.22415                        0
   157                  9.23979                        0


BAND               Energy(ev)               Occupation                Kpoint = 4                        (0.5 0.5 0.5)
     1                 -40.4414                     0.25
     2                 -4.95948                     0.25
     3                 -4.89751                     0.25
     4                 -4.89724                     0.25
     5                 -4.89722                     0.25
     6                 -4.86003                     0.25
     7                 -4.86001                     0.25
     8                 -4.85997                     0.25
     9                 -4.85294                     0.25
    10                  -3.1033                     0.25
    11                 -3.10263                     0.25
    12                 -3.10263                     0.25
    13                 -3.00294                     0.25
    14                 -3.00259                     0.25
    15                 -3.00257                     0.25
    16                 -2.99993                     0.25
    17                 -2.99188                     0.25
    18                 -2.99188                     0.25
    19                 -2.97255                     0.25
    20                 -2.94852                     0.25
    21                 -2.94851                     0.25
    22                  -2.9484                     0.25
    23                 -2.94379                     0.25
    24                 -2.94378                     0.25
    25                 -2.94375                     0.25
    26                 -2.93963                     0.25
    27                 -2.93962                     0.25
    28                 -2.93958                     0.25
    29                 -2.93858                     0.25
    30                 -2.93856                     0.25
    31                 -2.92282                     0.25
    32                 -2.92281                     0.25
    33                  -2.9228                     0.25
    34                -0.194913                     0.25
    35                -0.194394                     0.25
    36                 -0.19439                     0.25
    37                 -0.16899                     0.25
    38                -0.168839                     0.25
    39                -0.168829                     0.25
    40                -0.142334                     0.25
    41                -0.122405                     0.25
    42                -0.122395                     0.25
    43                -0.121308                     0.25
    44               -0.0887259                     0.25
    45               -0.0887216                     0.25
    46               -0.0887099                     0.25
    47                -0.086186                     0.25
    48               -0.0861609                     0.25
    49               -0.0861552                     0.25
    50               -0.0845199                     0.25
    51               -0.0845126                     0.25
    52                -0.084504                     0.25
    53               -0.0701906                     0.25
    54               -0.0701893                     0.25
    55                -0.070178                     0.25
    56               -0.0592135                     0.25
    57                -0.059209                     0.25
    58                  2.31108                     0.25
    59                  2.32984                     0.25
    60                  2.32992                     0.25
    61                  2.32992                     0.25
    62                  2.35762                     0.25
    63                   2.3577                     0.25
    64                   2.3577                     0.25
    65                  2.36508                     0.25
    66                  2.64379                     0.25
    67                  2.66337                     0.25
    68                  2.66342                     0.25
    69                  2.66343                     0.25
    70                  2.73828                     0.25
    71                  2.73829                     0.25
    72                  2.73835                     0.25
    73                  2.74515                     0.25
    74                  2.74516                     0.25
    75                  2.74518                     0.25
    76                  2.75973                     0.25
    77                  2.75974                     0.25
    78                  2.75974                     0.25
    79                  2.76449                     0.25
    80                  2.76449                     0.25
    81                  2.78039                     0.25
    82                  2.78051                     0.25
    83                  2.78051                     0.25
    84                  2.78948                     0.25
    85                  2.78948                     0.25
    86                  2.79007                     0.25
    87                  2.79007                     0.25
    88                  2.79014                     0.25
    89                  2.79213                     0.25
    90                  3.94394                     0.25
    91                  3.94462                     0.25
    92                  3.94463                     0.25
    93                  4.08129                     0.25
    94                  4.08129                     0.25
    95                  4.09324                     0.25
    96                  4.09324                     0.25
    97                   4.0933                     0.25
    98                  4.09801                     0.25
    99                  4.09804                     0.25
   100                  4.09805                     0.25
   101                  4.11143                     0.25
   102                  4.11145                     0.25
   103                   4.1115                     0.25
   104                  4.13125                     0.25
   105                  4.13126                     0.25
   106                  4.13126                     0.25
   107                  4.13442                     0.25
   108                  4.13444                     0.25
   109                  4.13445                     0.25
   110                   4.1529                     0.25
   111                  4.15291                     0.25
   112                  4.15292                     0.25
   113                  4.15499                     0.25
   114                  5.50122                     0.25
   115                  5.50155                     0.25
   116                  5.50156                     0.25
   117                  5.53263                     0.25
   118                  5.53263                     0.25
   119                  5.54371                     0.25
   120                  5.54383                     0.25
   121                  5.54384                     0.25
   122                  5.54481                     0.25
   123                  5.54481                     0.25
   124                  5.54483                     0.25
   125                  5.56081                     0.25
   126                  5.56082                     0.25
   127                  5.58093                     0.25
   128                  5.58095                     0.25
   129                  5.58095                     0.25
   130                  7.78062                        0
   131                  7.78063                        0
   132                  7.78159                        0
   133                  7.85498                        0
   134                  7.85498                        0
   135                   7.8785                        0
   136                  7.87882                        0
   137                  7.87883                        0
   138                  7.88716                        0
   139                  7.91546                        0
   140                  7.91562                        0
   141                  7.91563                        0
   142                  7.94732                        0
   143                  7.94732                        0
   144                  7.94738                        0
   145                  7.95801                        0
   146                  7.95802                        0
   147                  7.95802                        0
   148                  7.96391                        0
   149                  7.96391                        0
   150                  7.96478                        0
   151                  7.96479                        0
   152                   7.9648                        0
   153                  7.99909                        0
   154                  8.37327                        0
   155                  8.37796                        0
   156                  8.37817                        0
   157                  8.37818                        0


